Normalized VSF (nVSF) from LOV experiment (see Harmel et al. 2016, Opt. Express)
nVSF = VSF / bp
sample = Dunaliella
wavelength (nm)	measured backscattering coefficient (bp in m-1) 
405	0.45077
443	0.42055
515	0.48125
658	0.81610
"Angle (deg)"	"nVSF.405"	"nVSF.443"	"nVSF.515"	"nVSF.658"
  1	        NA	        NA	        NA	2.4512e+02
  2	        NA	        NA	67.5426939	1.6419e+01
  3	27.3439308	31.1098712	20.8600283	1.1478e+01
  4	10.7277591	11.5534325	10.2586403	1.2082e+01
  5	 5.7128060	 6.6534613	 5.9209577	7.1634e+00
  6	 3.6551989	 3.9088357	 3.7214593	3.7791e+00
  7	 2.5966772	 2.6522683	 2.4467282	2.8561e+00
  8	 1.9510803	 1.8796646	 1.8650890	2.1760e+00
  9	 1.5823646	 1.4494687	 1.3241887	1.6650e+00
 10	 1.3295312	 1.1633902	 1.0652080	1.3744e+00
 11	 1.1178680	 0.9691863	 0.8307830	1.1290e+00
 12	 1.0471834	 0.8230523	 0.7521766	9.3998e-01
 13	 0.9474465	 0.7064189	 0.6462905	8.3132e-01
 14	 0.8557523	 0.6004353	 0.5685251	7.3437e-01
 15	 0.7782823	 0.5379341	 0.5071188	6.5512e-01
 16	 0.7067374	 0.4821078	 0.4546528	5.9651e-01
 17	 0.6440267	 0.4254681	 0.4122571	5.3923e-01
 18	 0.5892216	 0.3880072	 0.3768940	4.8536e-01
 19	 0.5382430	 0.3603859	 0.3439487	4.3822e-01
 20	 0.4899958	 0.3280976	 0.3172689	3.8710e-01
 21	 0.4478027	 0.2970075	 0.2909290	3.4756e-01
 22	 0.4095991	 0.2718319	 0.2668174	3.2382e-01
 23	 0.3745451	 0.2483400	 0.2471354	2.9922e-01
 24	 0.3437906	 0.2274584	 0.2298321	2.7364e-01
 25	 0.3156148	 0.2089706	 0.2132759	2.5122e-01
 26	 0.2896049	 0.1916522	 0.1984262	2.3084e-01
 27	 0.2659311	 0.1761238	 0.1844363	2.1276e-01
 28	 0.2444441	 0.1621509	 0.1723795	1.9630e-01
 29	 0.2246248	 0.1496797	 0.1608352	1.8189e-01
 30	 0.2066414	 0.1371960	 0.1507273	1.6812e-01
 31	 0.1904734	 0.1266550	 0.1408313	1.5604e-01
 32	 0.1764276	 0.1175044	 0.1325436	1.4564e-01
 33	 0.1634339	 0.1083736	 0.1256989	1.3582e-01
 34	 0.1515335	 0.1006013	 0.1185333	1.2642e-01
 35	 0.1402765	 0.0918838	 0.1119644	1.1849e-01
 36	 0.1303907	 0.0853995	 0.1057246	1.1128e-01
 37	 0.1211916	 0.0793606	 0.0998783	1.0478e-01
 38	 0.1131935	 0.0737937	 0.0937343	9.8852e-02
 39	 0.1056873	 0.0688520	 0.0888861	9.3367e-02
 40	 0.0987421	 0.0639636	 0.0840856	8.8499e-02
 41	 0.0925286	 0.0598412	 0.0796503	8.3878e-02
 42	 0.0867267	 0.0555757	 0.0757387	7.9819e-02
 43	 0.0810753	 0.0518865	 0.0720464	7.5686e-02
 44	 0.0758946	 0.0483644	 0.0683544	7.2133e-02
 45	 0.0713415	 0.0451846	 0.0648518	6.8601e-02
 46	 0.0670728	 0.0424605	 0.0619075	6.5464e-02
 47	 0.0628544	 0.0398116	 0.0589328	6.2371e-02
 48	 0.0590686	 0.0370669	 0.0561385	5.9501e-02
 49	 0.0555471	 0.0350719	 0.0535226	5.6849e-02
 50	 0.0521137	 0.0330241	 0.0508688	5.4175e-02
 51	 0.0489579	 0.0309436	 0.0486412	5.1841e-02
 52	 0.0460776	 0.0292771	 0.0466408	4.9489e-02
 53	 0.0434689	 0.0274969	 0.0445921	4.7315e-02
 54	 0.0408646	 0.0260143	 0.0427481	4.5268e-02
 55	 0.0383928	 0.0246333	 0.0410803	4.3247e-02
 56	 0.0361560	 0.0231516	 0.0394979	4.1318e-02
 57	 0.0339830	 0.0218794	 0.0381767	3.9595e-02
 58	 0.0318461	 0.0207549	 0.0367746	3.7912e-02
 59	 0.0299920	 0.0196493	 0.0354778	3.6272e-02
 60	 0.0283617	 0.0185786	 0.0343591	3.4796e-02
 61	 0.0267757	 0.0175910	 0.0331889	3.3294e-02
 62	 0.0253898	 0.0166512	 0.0321206	3.2039e-02
 63	 0.0239980	 0.0157275	 0.0311124	3.0790e-02
 64	 0.0227764	 0.0149546	 0.0302372	2.9613e-02
 65	 0.0216384	 0.0141787	 0.0290518	2.8382e-02
 66	 0.0205318	 0.0135288	 0.0282124	2.7338e-02
 67	 0.0194761	 0.0128614	 0.0271148	2.6305e-02
 68	 0.0185663	 0.0122183	 0.0262789	2.5383e-02
 69	 0.0176871	 0.0117062	 0.0255333	2.4445e-02
 70	 0.0168082	 0.0111387	 0.0247218	2.3660e-02
 71	 0.0160736	 0.0105983	 0.0239898	2.2811e-02
 72	 0.0153467	 0.0102025	 0.0231851	2.1998e-02
 73	 0.0146177	 0.0097387	 0.0225402	2.1278e-02
 74	 0.0139620	 0.0093197	 0.0219002	2.0599e-02
 75	 0.0134161	 0.0089754	 0.0213649	1.9942e-02
 76	 0.0128283	 0.0086218	 0.0207601	1.9364e-02
 77	 0.0123520	 0.0082790	 0.0201568	1.8796e-02
 78	 0.0118430	 0.0079556	 0.0195806	1.8209e-02
 79	 0.0113572	 0.0076885	 0.0190494	1.7694e-02
 80	 0.0110121	 0.0074054	 0.0185052	1.7204e-02
 81	 0.0105819	 0.0070991	 0.0179682	1.6760e-02
 82	 0.0101749	 0.0068580	 0.0174283	1.6281e-02
 83	 0.0098356	 0.0066414	 0.0169434	1.5818e-02
 84	 0.0095491	 0.0063984	 0.0165186	1.5458e-02
 85	 0.0091894	 0.0061715	 0.0160738	1.5072e-02
 86	 0.0088590	 0.0059770	 0.0156936	1.4696e-02
 87	 0.0086139	 0.0057925	 0.0152615	1.4381e-02
 88	 0.0084192	 0.0055976	 0.0148300	1.4073e-02
 89	 0.0082006	 0.0054337	 0.0144946	1.3771e-02
 90	 0.0079384	 0.0052413	 0.0141674	1.3480e-02
 91	 0.0077359	 0.0051248	 0.0138014	1.3218e-02
 92	 0.0075215	 0.0050399	 0.0134329	1.2967e-02
 93	 0.0073012	 0.0049064	 0.0130502	1.2755e-02
 94	 0.0071626	 0.0047676	 0.0127836	1.2506e-02
 95	 0.0069997	 0.0046869	 0.0124702	1.2283e-02
 96	 0.0068025	 0.0045851	 0.0121466	1.2063e-02
 97	 0.0066705	 0.0044610	 0.0118797	1.1874e-02
 98	 0.0065395	 0.0043605	 0.0115952	1.1707e-02
 99	 0.0063888	 0.0043006	 0.0113167	1.1520e-02
100	 0.0062928	 0.0042534	 0.0111042	1.1355e-02
101	 0.0061604	 0.0041854	 0.0108390	1.1212e-02
102	 0.0060399	 0.0041317	 0.0106266	1.1049e-02
103	 0.0059265	 0.0040685	 0.0104041	1.0889e-02
104	 0.0058061	 0.0040020	 0.0101793	1.0773e-02
105	 0.0057085	 0.0039504	 0.0099499	1.0656e-02
106	 0.0056665	 0.0039171	 0.0097537	1.0546e-02
107	 0.0055811	 0.0038626	 0.0095765	1.0427e-02
108	 0.0055222	 0.0038029	 0.0093859	1.0325e-02
109	 0.0054483	 0.0037639	 0.0092130	1.0216e-02
110	 0.0054000	 0.0037266	 0.0090267	1.0154e-02
111	 0.0053597	 0.0036853	 0.0088984	1.0077e-02
112	 0.0052698	 0.0036682	 0.0087156	9.9979e-03
113	 0.0052245	 0.0036224	 0.0085635	9.9230e-03
114	 0.0052230	 0.0036228	 0.0084259	9.8545e-03
115	 0.0051644	 0.0035778	 0.0082739	9.7781e-03
116	 0.0051233	 0.0035474	 0.0081442	9.7229e-03
117	 0.0051103	 0.0035351	 0.0080161	9.6851e-03
118	 0.0050658	 0.0035339	 0.0079063	9.6265e-03
119	 0.0050276	 0.0034930	 0.0077766	9.5781e-03
120	 0.0050106	 0.0034890	 0.0076683	9.5240e-03
121	 0.0050085	 0.0034734	 0.0075555	9.5170e-03
122	 0.0049559	 0.0034446	 0.0074604	9.4813e-03
123	 0.0048999	 0.0034513	 0.0073673	9.4507e-03
124	 0.0048983	 0.0034338	 0.0072883	9.4351e-03
125	 0.0049094	 0.0034196	 0.0071882	9.4002e-03
126	 0.0048816	 0.0034024	 0.0071449	9.3786e-03
127	 0.0048638	 0.0034296	 0.0070681	9.3865e-03
128	 0.0048312	 0.0033871	 0.0070611	9.3720e-03
129	 0.0048133	 0.0033877	 0.0070330	9.3257e-03
130	 0.0048106	 0.0034171	 0.0070249	9.3054e-03
131	 0.0048042	 0.0034317	 0.0070058	9.2969e-03
132	 0.0047761	 0.0034428	 0.0070330	9.2826e-03
133	 0.0047915	 0.0034477	 0.0070345	9.2583e-03
134	 0.0047589	 0.0034867	 0.0070799	9.2308e-03
135	 0.0047613	 0.0035050	 0.0071340	9.2177e-03
136	 0.0047452	 0.0035661	 0.0072048	9.1873e-03
137	 0.0047211	 0.0036164	 0.0072196	9.1724e-03
138	 0.0047407	 0.0036381	 0.0072860	9.1433e-03
139	 0.0047308	 0.0036828	 0.0073439	9.1109e-03
140	 0.0047101	 0.0037257	 0.0073740	9.0528e-03
141	 0.0047332	 0.0038008	 0.0073811	9.0142e-03
142	 0.0047374	 0.0038508	 0.0074064	9.0119e-03
143	 0.0047372	 0.0039094	 0.0074804	8.9845e-03
144	 0.0047672	 0.0039711	 0.0074809	8.9678e-03
145	 0.0047788	 0.0040457	 0.0075239	8.9466e-03
146	 0.0047967	 0.0041245	 0.0075561	8.9345e-03
147	 0.0048483	 0.0041759	 0.0075871	8.9688e-03
148	 0.0048911	 0.0042641	 0.0076268	8.9698e-03
149	 0.0049277	 0.0043040	 0.0076334	8.9726e-03
150	 0.0049940	 0.0043940	 0.0076594	9.0393e-03
151	 0.0050789	 0.0044631	 0.0076884	9.0992e-03
152	 0.0051561	 0.0044810	 0.0077364	9.1600e-03
153	 0.0052186	 0.0045330	 0.0077673	9.2241e-03
154	 0.0053057	 0.0045232	 0.0077876	9.2875e-03
155	 0.0053563	 0.0045690	 0.0078210	9.3637e-03
156	 0.0054338	 0.0046062	 0.0078889	9.4249e-03
157	 0.0054948	 0.0045945	 0.0079732	9.5238e-03
158	 0.0055513	 0.0046101	 0.0079989	9.6301e-03
159	 0.0056323	 0.0046515	 0.0081062	9.7311e-03
160	 0.0057287	 0.0046593	 0.0082056	9.8929e-03
161	 0.0058035	 0.0047361	 0.0083481	1.0038e-02
162	 0.0059692	 0.0049189	 0.0085292	1.0193e-02
163	 0.0061031	 0.0050373	 0.0087638	1.0414e-02
164	 0.0062739	 0.0052549	 0.0090315	1.0671e-02
165	 0.0065227	 0.0054641	 0.0092987	1.0994e-02
166	 0.0068020	 0.0057623	 0.0095879	1.1390e-02
167	 0.0071995	 0.0062904	 0.0101492	1.1981e-02
168	 0.0072929	 0.0067252	 0.0107174	1.2783e-02
169	 0.0082417	 0.0076452	 0.0116366	1.3644e-02
170	 0.0082042	 0.0086362	 0.0128133	1.4870e-02
171	 0.0097681	 0.0101814	 0.0147569	1.7039e-02
172	 0.0121867	 0.0129200	 0.0177854	2.0451e-02
173	 0.0177543	 0.0184438	 0.0247481	2.6948e-02
174	 0.0316496	 0.0321184	 0.0389421	4.9440e-02
175	 0.0717223	 0.0624349	 0.0755915	9.3281e-02
